Trace
Swept SA
A.01.57,N9010A
526 B25 PFR P26 EA3 ,01
Segment,0
Number of Points,1001
Sweep Time,0.001
Start Frequency,1900000000
Stop Frequency,3000000000
Average Count,0
Average Type,LogPower(Video)
RBW,3000000
RBW Filter,Gaussian
RBW Filter BW,3dB
VBW,50000000
Sweep Type,Swept
X Axis Scale,Lin
PreAmp State,Off
PreAmp Band,Low
Trigger Source,Free
Trigger Level,1.2
Trigger Slope,Positive
Trigger Delay,1E-06
Phase Noise Optimization,Fast
Swept If Gain,Low
FFT If Gain,Autorange
RF Coupling,AC
FFT Width,411900
Ext Ref,10000000
Input,RF
RF Calibrator,Off
Attenuation,10
Ref Level Offset,0
External Gain,0
Trace Type,Clearwrite
Detector,Sample
Trace Math,Off
Trace Math Oper1,Trace6
Trace Math Oper2,Trace1
Trace Math Offset,0
Trace Name,Trace2
X Axis Units,Hz
Y Axis Units,dBm
DATA
1900000000,-67.9698147065347
1901100000,-71.6965199719839
1902200000,-75.6231279684878
1903300000,-76.7217002697768
1904400000,-75.5096321797572
1905500000,-73.1422438940834
1906600000,-79.4794436474232
1907700000,-76.2742277389467
1908800000,-70.4320596281752
1909900000,-65.5805859345423
1911000000,-82.0216928442786
1912100000,-69.5445179101185
1913200000,-77.2927957650208
1914300000,-66.0091577250989
1915400000,-79.3517723034875
1916500000,-80.6120306372473
1917600000,-71.4861661942981
1918700000,-68.7630686371887
1919800000,-67.7009275954601
1920900000,-71.9832448633996
1922000000,-73.4022494835851
1923100000,-71.7933156775011
1924200000,-81.3936335407042
1925300000,-70.6068125823741
1926400000,-88.1062280682823
1927500000,-74.4384559859288
1928600000,-71.0480360766221
1929700000,-78.7463382487607
1930800000,-79.6920437557138
1931900000,-80.8934290859628
1933000000,-85.5231565965303
1934100000,-72.0352292322442
1935200000,-74.3748945738176
1936300000,-73.5778508854592
1937400000,-77.8371703943666
1938500000,-78.4365060773461
1939600000,-71.8070062358628
1940700000,-75.5165932343698
1941800000,-65.4858072189118
1942900000,-71.0562534638543
1944000000,-70.4150163158769
1945100000,-73.9952544884072
1946200000,-73.5421610873047
1947300000,-73.6446796886925
1948400000,-77.7129157046799
1949500000,-70.6424539564583
1950600000,-70.259914460434
1951700000,-71.4942352891167
1952800000,-88.4708961883561
1953900000,-73.4366624044411
1955000000,-74.1535879292176
1956100000,-80.591259257412
1957200000,-68.4908920263291
1958300000,-77.2597819681465
1959400000,-72.2971181341339
1960500000,-69.980225740551
1961600000,-84.0965137380814
1962700000,-63.4591239925453
1963800000,-67.0687596255249
1964900000,-73.8415620028404
1966000000,-79.1944670404587
1967100000,-89.2068695592781
1968200000,-82.868404576242
1969300000,-66.1496963085869
1970400000,-72.3698264294571
1971500000,-74.1391810383156
1972600000,-74.5209755139709
1973700000,-68.0178847524192
1974800000,-79.2973178166
1975900000,-75.6163832581733
1977000000,-70.2539139620513
1978100000,-56.5219876760368
1979200000,-52.8528121017898
1980300000,-54.9132015690955
1981400000,-57.5791787216552
1982500000,-60.6625998125938
1983600000,-75.0405252081222
1984700000,-74.7961537762092
1985800000,-74.3329018789049
1986900000,-70.6540639858901
1988000000,-77.7464556014691
1989100000,-74.1910870423409
1990200000,-85.1022087702734
1991300000,-79.6418847740359
1992400000,-78.2589885421051
1993500000,-67.1249546791684
1994600000,-76.5720828767297
1995700000,-67.3753416573965
1996800000,-68.4441936269305
1997900000,-68.1137264790817
1999000000,-72.2046373827954
2000100000,-68.2671018378275
2001200000,-63.033138287049
2002300000,-66.1803907103427
2003400000,-65.2943115600037
2004500000,-65.3783486044889
2005600000,-74.2081301326166
2006700000,-76.3294111862327
2007800000,-70.2135238219776
2008900000,-81.353945741414
2010000000,-76.966629051573
2011100000,-68.0815009130015
2012200000,-67.1131088734047
2013300000,-74.678799602216
2014400000,-81.3860844859102
2015500000,-74.4000322923582
2016600000,-76.2008810270778
2017700000,-81.5353045077934
2018800000,-76.8451939753255
2019900000,-71.7758562030626
2021000000,-68.6085341218642
2022100000,-76.0184183102947
2023200000,-72.1426174322701
2024300000,-74.8841849013646
2025400000,-74.9917399142092
2026500000,-76.0341341693389
2027600000,-70.7619539199764
2028700000,-88.1728541532311
2029800000,-73.7227867516226
2030900000,-77.5550000033831
2032000000,-77.727229429216
2033100000,-67.2281807119824
2034200000,-78.5979028229226
2035300000,-84.505576782398
2036400000,-74.1887923199496
2037500000,-96.9853073075012
2038600000,-68.8154451142423
2039700000,-83.8186933367059
2040800000,-76.5945217135153
2041900000,-76.5198124715747
2043000000,-74.7077133170853
2044100000,-65.3434065731916
2045200000,-73.4764682886728
2046300000,-65.4203485347693
2047400000,-85.6835822020657
2048500000,-68.7713614437878
2049600000,-70.0091327668575
2050700000,-75.6388846810405
2051800000,-72.7639512872645
2052900000,-75.700895824299
2054000000,-66.8582779593316
2055100000,-78.0764871049111
2056200000,-66.1882923374046
2057300000,-74.3697438185798
2058400000,-67.7583932017081
2059500000,-60.4797202326391
2060600000,-57.2167403609335
2061700000,-56.9140847564641
2062800000,-61.8294783817311
2063900000,-67.0770633100742
2065000000,-72.1159262692279
2066100000,-79.5271642866336
2067200000,-74.0329171668322
2068300000,-72.5984593350679
2069400000,-72.7720425898759
2070500000,-76.3527915107483
2071600000,-87.0095091617477
2072700000,-68.7567642069854
2073800000,-76.2163891673913
2074900000,-80.6673570305181
2076000000,-71.3691326415453
2077100000,-77.739754672006
2078200000,-80.3651402412363
2079300000,-78.495654107781
2080400000,-67.4130038695406
2081500000,-75.7767737184584
2082600000,-83.3820890877863
2083700000,-73.4694577754248
2084800000,-69.6215225537371
2085900000,-79.0053842802428
2087000000,-77.2446687504496
2088100000,-76.6569118925803
2089200000,-63.2342238025821
2090300000,-77.1364752001327
2091400000,-74.1351868393825
2092500000,-68.1118395444526
2093600000,-68.8704863751575
2094700000,-77.660519400589
2095800000,-68.8385338708935
2096900000,-67.7422009472527
2098000000,-59.6816096431919
2099100000,-53.7611534598343
2100200000,-54.525679782629
2101300000,-53.8497305434121
2102400000,-60.2967859710408
2103500000,-73.6728228265503
2104600000,-74.9371059769818
2105700000,-66.2503487653527
2106800000,-75.5195603961064
2107900000,-74.2497824558152
2109000000,-70.8663271092252
2110100000,-71.7837202263559
2111200000,-72.0602487056936
2112300000,-75.9497250742403
2113400000,-68.9121653938123
2114500000,-70.2793396558161
2115600000,-69.4769813366674
2116700000,-66.6050418018938
2117800000,-69.3509569589659
2118900000,-72.5024634534516
2120000000,-63.1428341374793
2121100000,-62.7964661952375
2122200000,-63.4878286068532
2123300000,-66.9866484913692
2124400000,-74.4511857904849
2125500000,-74.7515619781259
2126600000,-76.5247509342728
2127700000,-79.5355729753318
2128800000,-73.4302425310881
2129900000,-79.1897271241491
2131000000,-76.2358044400616
2132100000,-70.1569317102221
2133200000,-80.023241528039
2134300000,-95.3604187354554
2135400000,-65.4137478668953
2136500000,-68.2983770254868
2137600000,-68.7240062075068
2138700000,-70.0756553936773
2139800000,-69.4870721901993
2140900000,-76.4242388617214
2142000000,-64.5852475443274
2143100000,-70.3171183374314
2144200000,-77.1925503420101
2145300000,-70.9126187955634
2146400000,-73.2461431607377
2147500000,-78.7722317306973
2148600000,-81.6584283523169
2149700000,-74.2231766102159
2150800000,-75.6512591935544
2151900000,-70.8323814314338
2153000000,-81.335460055446
2154100000,-77.7512756321927
2155200000,-67.3116034321815
2156300000,-69.2482620812914
2157400000,-81.1477200766416
2158500000,-69.9995690798042
2159600000,-65.6069544941974
2160700000,-68.7930052123991
2161800000,-69.7918848731789
2162900000,-72.2371195880603
2164000000,-69.6348103438108
2165100000,-69.9222714617196
2166200000,-76.7771252439838
2167300000,-74.7568857166289
2168400000,-72.886573237565
2169500000,-78.5243721572315
2170600000,-74.7373452568785
2171700000,-78.308502706965
2172800000,-67.0427618683308
2173900000,-68.3885315624114
2175000000,-70.8220072931131
2176100000,-78.1677986648793
2177200000,-73.2136925846923
2178300000,-72.2135449349253
2179400000,-59.1222218023946
2180500000,-60.888375180899
2181600000,-58.8945933679484
2182700000,-61.2751536698415
2183800000,-59.9339954788635
2184900000,-73.1974956390575
2186000000,-74.3463023481283
2187100000,-78.4113371337617
2188200000,-73.710049213438
2189300000,-71.7981225774896
2190400000,-91.9641722678113
2191500000,-76.9120643399689
2192600000,-68.1157359957202
2193700000,-70.9872597037665
2194800000,-72.4800425167444
2195900000,-72.0061352256696
2197000000,-73.4871590544678
2198100000,-67.707010152309
2199200000,-76.3610143307166
2200300000,-70.8013463819269
2201400000,-73.2818838659986
2202500000,-75.1979901094452
2203600000,-74.0508809740833
2204700000,-70.7430584957038
2205800000,-84.5004618080958
2206900000,-69.9148285086964
2208000000,-68.2583030828098
2209100000,-63.9707049467181
2210200000,-67.1059655740541
2211300000,-73.3485377708726
2212400000,-78.7826798053376
2213500000,-72.2549951830154
2214600000,-71.6362001109862
2215700000,-74.2011500056074
2216800000,-63.4255323483731
2217900000,-57.6416034754162
2219000000,-56.0791499229671
2220100000,-55.0105737060648
2221200000,-56.3467097539087
2222300000,-61.877863407856
2223400000,-69.6197060875846
2224500000,-89.0676175181922
2225600000,-81.9578631789755
2226700000,-71.8583871120732
2227800000,-70.5575709576222
2228900000,-77.8261145241184
2230000000,-70.5370356761614
2231100000,-71.7820395966127
2232200000,-73.4356682173081
2233300000,-71.7262273626129
2234400000,-75.3671243096755
2235500000,-72.2671835757322
2236600000,-71.6248705353437
2237700000,-81.1011633815762
2238800000,-72.806691386256
2239900000,-71.8057293283869
2241000000,-61.2505926245218
2242100000,-67.6401521235864
2243200000,-63.379011701899
2244300000,-68.0311812884147
2245400000,-79.7446208748328
2246500000,-69.9361796663778
2247600000,-80.7823941695439
2248700000,-76.1861226987354
2249800000,-79.0979626266574
2250900000,-71.9823287953509
2252000000,-65.1400913462221
2253100000,-72.2116719277085
2254200000,-67.2244142329254
2255300000,-72.9819283323317
2256400000,-72.3984102128416
2257500000,-71.1828466936932
2258600000,-83.9310768879238
2259700000,-74.0844189808848
2260800000,-66.4594462499665
2261900000,-69.8835633404608
2263000000,-73.0284045566875
2264100000,-97.0895388825334
2265200000,-71.3954713980765
2266300000,-63.2928442464321
2267400000,-65.1441972028932
2268500000,-67.1160797471961
2269600000,-86.0914534153271
2270700000,-74.4346732953722
2271800000,-71.1444104192649
2272900000,-73.8571089668881
2274000000,-76.7079755786226
2275100000,-70.9159888182868
2276200000,-74.6135022909589
2277300000,-64.9616289736407
2278400000,-64.4729440783439
2279500000,-63.3669125136136
2280600000,-68.0433614192446
2281700000,-68.8217070693092
2282800000,-68.8856944304578
2283900000,-70.8634564668506
2285000000,-71.2449364008507
2286100000,-69.0982347362181
2287200000,-79.0574072845737
2288300000,-85.9592439462106
2289400000,-70.6307210161482
2290500000,-71.0151406961933
2291600000,-76.9351021788263
2292700000,-93.1235965963713
2293800000,-74.5819312392094
2294900000,-79.2995365894693
2296000000,-75.068554978987
2297100000,-71.4637392760731
2298200000,-68.7232089103662
2299300000,-60.1443428994445
2300400000,-55.1901837619115
2301500000,-53.6343710523081
2302600000,-56.8321276973434
2303700000,-61.4439021899861
2304800000,-65.0179463287715
2305900000,-66.5723849346954
2307000000,-76.5785934197698
2308100000,-71.6244342822368
2309200000,-70.57425789236
2310300000,-79.6632656114187
2311400000,-69.0059991467372
2312500000,-72.8916563662843
2313600000,-68.4225553261633
2314700000,-68.0632192568431
2315800000,-75.0267905854234
2316900000,-76.781131922402
2318000000,-75.9073402952206
2319100000,-68.9188768946016
2320200000,-70.2087383564826
2321300000,-71.3398535319378
2322400000,-66.0049828230129
2323500000,-69.5874389705976
2324600000,-70.168414406317
2325700000,-77.4814082849076
2326800000,-70.6836211478731
2327900000,-70.2004085153308
2329000000,-66.5305111700932
2330100000,-71.0184090995138
2331200000,-64.2999951056922
2332300000,-69.4199384347711
2333400000,-71.1327160977854
2334500000,-72.5426999181728
2335600000,-71.6626215695661
2336700000,-67.3224621260863
2337800000,-60.7480956884659
2338900000,-58.33346990441
2340000000,-57.1652964434009
2341100000,-59.4101681405461
2342200000,-62.569300857662
2343300000,-67.6098710435279
2344400000,-68.4965800679193
2345500000,-73.3225487925059
2346600000,-71.1460424380886
2347700000,-74.2081635357221
2348800000,-74.545140049713
2349900000,-76.384326792659
2351000000,-71.0975691227144
2352100000,-72.3311681804065
2353200000,-75.8224922005986
2354300000,-80.6425814330954
2355400000,-67.4949428390296
2356500000,-69.4605386619073
2357600000,-70.785269846992
2358700000,-72.6420950662075
2359800000,-67.2818437451398
2360900000,-62.7711790310546
2362000000,-60.153710769899
2363100000,-66.3407819132845
2364200000,-70.2377908876758
2365300000,-71.1421383883366
2366400000,-77.9200984867514
2367500000,-71.1487690641212
2368600000,-72.0619358029168
2369700000,-77.8874181827769
2370800000,-74.2792555044826
2371900000,-65.9410414399091
2373000000,-70.5965048938903
2374100000,-72.2710658583206
2375200000,-70.8559537295381
2376300000,-78.3276938945544
2377400000,-72.9409848590824
2378500000,-77.3642083755148
2379600000,-69.2053188196815
2380700000,-67.2316549423638
2381800000,-71.1433626469797
2382900000,-79.2206904972499
2384000000,-75.1627466740827
2385100000,-69.6937247493529
2386200000,-69.7896420876602
2387300000,-67.8394961787019
2388400000,-68.1206175178393
2389500000,-70.9593179160588
2390600000,-74.2624981893759
2391700000,-70.1663376676246
2392800000,-72.2759810467034
2393900000,-67.7301956777163
2395000000,-85.161659834924
2396100000,-66.307838559661
2397200000,-64.1841120260483
2398300000,-66.2877403050333
2399400000,-62.0679748413914
2400500000,-72.2353265215971
2401600000,-64.673069804879
2402700000,-65.1069223303484
2403800000,-71.3379540564037
2404900000,-70.5959081639044
2406000000,-71.8146728833679
2407100000,-69.0177445054682
2408200000,-83.1037776635547
2409300000,-71.8462601683698
2410400000,-70.7749627188392
2411500000,-77.3617037163301
2412600000,-73.1301792685085
2413700000,-67.952056594222
2414800000,-67.1776734952285
2415900000,-77.3950008581979
2417000000,-65.2467403114017
2418100000,-51.610968265875
2419200000,-41.5734453793326
2420300000,-36.6510806109544
2421400000,-35.0741468416972
2422500000,-36.6486208325963
2423600000,-41.2216357893157
2424700000,-49.8808977484765
2425800000,-61.5210621971881
2426900000,-68.25773024297
2428000000,-70.8199589049628
2429100000,-68.3228846236451
2430200000,-68.624448577093
2431300000,-81.5051858567616
2432400000,-63.8331424915571
2433500000,-66.3218775024269
2434600000,-68.0257003193026
2435700000,-75.4855458921352
2436800000,-78.6092660487082
2437900000,-70.1533265343338
2439000000,-71.7807159540415
2440100000,-73.9666571222843
2441200000,-69.4911337527342
2442300000,-71.3272451416313
2443400000,-76.8409788327257
2444500000,-72.6653095597576
2445600000,-70.2182109612035
2446700000,-66.663256377111
2447800000,-60.2501807006856
2448900000,-61.4157703280689
2450000000,-70.6068666580889
2451100000,-73.2717267683824
2452200000,-69.3544954840957
2453300000,-75.3442083711958
2454400000,-75.1545750718701
2455500000,-71.440186264683
2456600000,-64.791930904664
2457700000,-60.551327555436
2458800000,-54.235263498493
2459900000,-51.5409665688939
2461000000,-51.7217412712284
2462100000,-57.2087575846468
2463200000,-66.8760927739441
2464300000,-66.4160117250939
2465400000,-62.8496227197317
2466500000,-49.0499777319965
2467600000,-66.1940996131089
2468700000,-64.1152221064772
2469800000,-53.8373928805584
2470900000,-63.6909445702645
2472000000,-53.2602485500098
2473100000,-39.0460993699405
2474200000,-65.7414561510041
2475300000,-54.1436809509154
2476400000,-46.2147088148891
2477500000,-26.0034777031793
2478600000,-14.0382342474753
2479700000,-6.90593328962288
2480800000,-3.26605063313765
2481900000,-3.07155034130084
2483000000,-6.01669882544061
2484100000,-11.9692075135355
2485200000,-21.9991439659369
2486300000,-37.1883347271763
2487400000,-64.818530750525
2488500000,-45.8831494223113
2489600000,-60.6931129437558
2490700000,-79.0807474018701
2491800000,-38.6117262946036
2492900000,-77.2777289705891
2494000000,-62.9783271552171
2495100000,-55.6784606728042
2496200000,-60.352179831358
2497300000,-53.654961288154
2498400000,-64.4639304424598
2499500000,-66.4771794303593
2500600000,-60.9823170195284
2501700000,-56.6398350583068
2502800000,-55.8897227639798
2503900000,-55.0220206278559
2505000000,-58.6197927339683
2506100000,-63.5110530998463
2507200000,-78.0299817628435
2508300000,-71.2680888066512
2509400000,-69.4273307296582
2510500000,-64.7526574653605
2511600000,-68.497416873719
2512700000,-65.0162805036595
2513800000,-72.3592890710024
2514900000,-76.8507439747711
2516000000,-64.7267542326413
2517100000,-80.0717515342615
2518200000,-66.8573802561855
2519300000,-65.6150891074819
2520400000,-63.0675507148331
2521500000,-66.061433616862
2522600000,-62.7466215064886
2523700000,-67.7659894334687
2524800000,-75.825054770898
2525900000,-65.8370191385519
2527000000,-69.4864654085984
2528100000,-67.3181542557445
2529200000,-69.6711725199804
2530300000,-74.2730965085816
2531400000,-65.5285734532375
2532500000,-75.1427644484304
2533600000,-69.2733130250199
2534700000,-71.6792467180644
2535800000,-72.3011244132841
2536900000,-65.7652266516656
2538000000,-53.0823199101155
2539100000,-42.7864869570419
2540200000,-37.5323184710094
2541300000,-35.2031972996741
2542400000,-36.7104447169619
2543500000,-41.1456791949919
2544600000,-48.7558394015374
2545700000,-57.60657243904
2546800000,-77.2138362549118
2547900000,-83.6422185513988
2549000000,-64.7476284169287
2550100000,-95.3965783775271
2551200000,-78.0100779641019
2552300000,-75.4398976170831
2553400000,-70.8207142767536
2554500000,-66.0721821104477
2555600000,-72.6710696775401
2556700000,-70.862283556156
2557800000,-67.4483960942446
2558900000,-80.5823391191984
2560000000,-74.3462954541619
2561100000,-73.5429024801411
2562200000,-71.4812981988937
2563300000,-72.8797750125193
2564400000,-74.051891380686
2565500000,-64.0470932860597
2566600000,-69.7346595792264
2567700000,-70.4628742946099
2568800000,-69.8917212581379
2569900000,-75.000157580455
2571000000,-70.6754529102401
2572100000,-68.0264204151686
2573200000,-73.8673744978315
2574300000,-78.2649132724377
2575400000,-69.0484881130108
2576500000,-75.5949812464549
2577600000,-62.7744274359537
2578700000,-62.0773863147103
2579800000,-69.2588645938576
2580900000,-67.6416829605537
2582000000,-69.4052092789099
2583100000,-73.6851582117193
2584200000,-76.4334994551243
2585300000,-75.7276390957462
2586400000,-78.3554507513095
2587500000,-70.7264884561403
2588600000,-73.6124665234367
2589700000,-69.9643505795753
2590800000,-68.7297661385946
2591900000,-69.0855843079168
2593000000,-69.7912322565846
2594100000,-70.3146159504673
2595200000,-73.7189507683734
2596300000,-78.8606754988283
2597400000,-81.5359532975938
2598500000,-65.746686188205
2599600000,-89.2941609059158
2600700000,-64.2299950247985
2601800000,-73.2698230108198
2602900000,-79.7638309219388
2604000000,-69.8687546326184
2605100000,-78.0266588051632
2606200000,-71.8553365108151
2607300000,-70.3247438696971
2608400000,-70.0788202502099
2609500000,-75.1450177338966
2610600000,-73.6673405215872
2611700000,-70.9902469229496
2612800000,-74.7776548770953
2613900000,-68.7874674858308
2615000000,-76.5993877754745
2616100000,-78.434804355792
2617200000,-71.8772459778576
2618300000,-73.004183761349
2619400000,-68.1869550420083
2620500000,-69.6196264141715
2621600000,-66.604462020368
2622700000,-71.0121563899921
2623800000,-75.3463571084933
2624900000,-68.8711116198167
2626000000,-64.8564335707397
2627100000,-71.3895643308424
2628200000,-101.079074686795
2629300000,-72.7673955764384
2630400000,-79.5856817028985
2631500000,-69.04182768805
2632600000,-66.6175522492757
2633700000,-64.7635875432163
2634800000,-75.9091798478014
2635900000,-68.4726374024354
2637000000,-74.7558897487197
2638100000,-62.339417503256
2639200000,-65.174347738847
2640300000,-69.2704290277094
2641400000,-66.9431652084176
2642500000,-73.7142418684977
2643600000,-66.8639878764662
2644700000,-74.5331396003038
2645800000,-68.7147364700399
2646900000,-70.7160578192682
2648000000,-69.6159470911039
2649100000,-75.0273738524415
2650200000,-81.5853015712987
2651300000,-69.7345395568551
2652400000,-83.9916621673627
2653500000,-66.6906109856339
2654600000,-75.2652044913075
2655700000,-69.2145614234947
2656800000,-84.2007410531429
2657900000,-62.8193223610626
2659000000,-60.6550235646366
2660100000,-54.6162373240069
2661200000,-52.9699792305583
2662300000,-54.8161394384769
2663400000,-58.3379548920009
2664500000,-64.3232775311695
2665600000,-88.1557984090588
2666700000,-69.0739065231785
2667800000,-67.3276970642026
2668900000,-81.3444058980977
2670000000,-66.7485664767682
2671100000,-63.6853507896673
2672200000,-67.5628755146269
2673300000,-83.1758664509146
2674400000,-63.6794703727003
2675500000,-77.0406158385779
2676600000,-69.9411288317992
2677700000,-82.1879968374348
2678800000,-81.4268435813165
2679900000,-72.9664954335479
2681000000,-82.7237535261601
2682100000,-65.3941915608622
2683200000,-68.434129940828
2684300000,-67.3319661434988
2685400000,-76.1220477873318
2686500000,-71.692091467151
2687600000,-73.9089009545386
2688700000,-74.7734272612622
2689800000,-66.3953920027514
2690900000,-74.2006587215355
2692000000,-76.91134554447
2693100000,-72.4813892242893
2694200000,-69.953448595173
2695300000,-74.339790663713
2696400000,-64.6418094310322
2697500000,-64.2157872240351
2698600000,-64.3365577813934
2699700000,-59.8360475561346
2700800000,-61.8206171059733
2701900000,-67.4004960687516
2703000000,-74.7354034203482
2704100000,-76.2784907652542
2705200000,-63.4387275146586
2706300000,-65.5475729024907
2707400000,-72.3835299305572
2708500000,-75.4801299894831
2709600000,-69.9838523591023
2710700000,-75.0736002364852
2711800000,-66.3524211948251
2712900000,-72.0301182811924
2714000000,-77.9665130195128
2715100000,-69.0630697230675
2716200000,-74.1116611558215
2717300000,-72.0166696994154
2718400000,-67.3964363904213
2719500000,-69.334776507648
2720600000,-67.9629625782926
2721700000,-63.0285576323705
2722800000,-65.6597066542147
2723900000,-67.4883050057952
2725000000,-70.3575734572781
2726100000,-66.4007515924524
2727200000,-72.327355930654
2728300000,-93.5876756391682
2729400000,-63.4494754982683
2730500000,-90.630443741255
2731600000,-66.8009386127575
2732700000,-65.7162486338204
2733800000,-73.8535419978033
2734900000,-68.4327266026065
2736000000,-84.4779368274293
2737100000,-71.6871780976133
2738200000,-69.4412884309321
2739300000,-79.9817115923372
2740400000,-67.6249075778397
2741500000,-76.7635266438109
2742600000,-70.5654905934247
2743700000,-69.5355280900111
2744800000,-75.0082838379648
2745900000,-66.1938738075981
2747000000,-64.4760107296729
2748100000,-80.6700203034566
2749200000,-81.3245322837833
2750300000,-69.7438212251451
2751400000,-76.8892924726593
2752500000,-68.1895325380446
2753600000,-72.9097132984983
2754700000,-72.2883754953289
2755800000,-65.5553056647669
2756900000,-92.0707636022713
2758000000,-59.764842926934
2759100000,-59.5491900779638
2760200000,-58.3516620499897
2761300000,-61.4961389303652
2762400000,-68.1947687790513
2763500000,-72.6239146810577
2764600000,-68.7306395298902
2765700000,-80.3474645117306
2766800000,-68.2443805910743
2767900000,-73.0100223891374
2769000000,-71.0730432047786
2770100000,-70.3237214225683
2771200000,-71.6234026336686
2772300000,-68.4870070629817
2773400000,-76.4246348435155
2774500000,-79.4646457132095
2775600000,-75.149411978509
2776700000,-69.4936540473241
2777800000,-66.1338377772232
2778900000,-65.5168045670343
2780000000,-59.7728542545018
2781100000,-54.4463478803481
2782200000,-56.2016897284112
2783300000,-60.793886509824
2784400000,-63.8586128886722
2785500000,-83.3058301806983
2786600000,-80.6314584846873
2787700000,-67.7796859811567
2788800000,-65.9372624158586
2789900000,-67.5549199454336
2791000000,-69.3519019837487
2792100000,-86.2856364073666
2793200000,-67.1045906691193
2794300000,-72.2411242144657
2795400000,-68.9435263569313
2796500000,-65.2990384660961
2797600000,-78.3287901420577
2798700000,-71.2624378549334
2799800000,-80.0031000513541
2800900000,-69.2738241922571
2802000000,-72.0185445150881
2803100000,-70.6038602283755
2804200000,-68.6600216535769
2805300000,-81.9558265756533
2806400000,-73.4357760983645
2807500000,-70.851072885773
2808600000,-73.0757942026736
2809700000,-66.093230906879
2810800000,-69.7613675318363
2811900000,-67.5323735906803
2813000000,-67.1671786420048
2814100000,-72.9607516574406
2815200000,-67.3716279869389
2816300000,-76.8898592412907
2817400000,-67.6025350462773
2818500000,-61.6606418503849
2819600000,-61.8304806818852
2820700000,-68.6941212576726
2821800000,-67.1118714463994
2822900000,-74.5517022469914
2824000000,-73.7190876771733
2825100000,-73.8066136194158
2826200000,-68.7054877923711
2827300000,-70.695029425678
2828400000,-73.5337595530123
2829500000,-70.165969775228
2830600000,-73.674245996516
2831700000,-69.1276180547181
2832800000,-69.1317169904593
2833900000,-77.919777108427
2835000000,-81.5338841873321
2836100000,-77.7956864078877
2837200000,-73.9663565010508
2838300000,-67.985132489331
2839400000,-69.2562619704334
2840500000,-62.9810633542215
2841600000,-63.5025575938688
2842700000,-65.1323360924518
2843800000,-65.0658811231148
2844900000,-72.9484994592466
2846000000,-72.1705880399144
2847100000,-76.222802068352
2848200000,-71.8614629162231
2849300000,-66.2448522029126
2850400000,-71.996239445315
2851500000,-73.2321767627174
2852600000,-77.0844880601003
2853700000,-70.7858562643679
2854800000,-74.673296407208
2855900000,-78.30556360727
2857000000,-75.8790142087479
2858100000,-80.8165286527552
2859200000,-65.8019866898777
2860300000,-71.8566046309553
2861400000,-68.5981071017204
2862500000,-77.3484721659913
2863600000,-72.9464134252818
2864700000,-66.5894235646992
2865800000,-66.2118771594877
2866900000,-80.7799996466591
2868000000,-75.0462359476
2869100000,-68.6598486265681
2870200000,-66.27739541872
2871300000,-68.2046099127272
2872400000,-77.225431613131
2873500000,-82.0747536757906
2874600000,-68.9945646104717
2875700000,-72.2593635549184
2876800000,-65.9258916626952
2877900000,-62.5027683549447
2879000000,-61.8283075991961
2880100000,-58.1288481632229
2881200000,-62.0668489519567
2882300000,-68.8152469596359
2883400000,-69.6018399882135
2884500000,-76.2120699317813
2885600000,-68.7673740345776
2886700000,-72.2056179956747
2887800000,-82.4581932889008
2888900000,-81.9953942483866
2890000000,-68.336075212218
2891100000,-78.0683154554929
2892200000,-67.0488883676642
2893300000,-73.7443709465348
2894400000,-66.643625336587
2895500000,-74.1034418871372
2896600000,-69.5220586376875
2897700000,-73.4953363789603
2898800000,-68.1848961103699
2899900000,-61.1194274529612
2901000000,-59.0691655481892
2902100000,-59.5353262578703
2903200000,-62.7677879958229
2904300000,-68.4314197129258
2905400000,-64.5026600854488
2906500000,-73.4235304203252
2907600000,-73.3399586196059
2908700000,-70.9781181449591
2909800000,-83.231617390419
2910900000,-70.2532763323144
2912000000,-69.1985452324129
2913100000,-71.7332440533611
2914200000,-69.0969295812917
2915300000,-69.8912987436461
2916400000,-67.7341628768989
2917500000,-81.3781620016069
2918600000,-70.9133038119105
2919700000,-69.9173676329075
2920800000,-93.2272517533185
2921900000,-74.4076353039542
2923000000,-79.7615505819824
2924100000,-84.3070356976571
2925200000,-70.7319261924334
2926300000,-82.1799350215847
2927400000,-66.9027125563512
2928500000,-73.1179734255416
2929600000,-78.0074088284721
2930700000,-76.1971629950258
2931800000,-69.9155634272532
2932900000,-80.4140342838947
2934000000,-79.2417133421964
2935100000,-74.9709000691504
2936200000,-69.9886682532333
2937300000,-65.8413243140741
2938400000,-63.2520457787234
2939500000,-62.1150017895641
2940600000,-69.5267392990377
2941700000,-72.7081822498687
2942800000,-67.4319758294594
2943900000,-73.3238646337083
2945000000,-67.9888632924006
2946100000,-85.5809413554386
2947200000,-64.85342972292
2948300000,-71.6654590392295
2949400000,-74.1913386220428
2950500000,-68.447712580491
2951600000,-71.590938832738
2952700000,-67.5707279301439
2953800000,-71.1715110400518
2954900000,-75.9893490125573
2956000000,-71.5293484672894
2957100000,-76.5059327262207
2958200000,-78.4516388128375
2959300000,-69.5526217397376
2960400000,-65.2631264650752
2961500000,-67.2793864567702
2962600000,-90.18548184368
2963700000,-70.8415470729726
2964800000,-76.6530192086617
2965900000,-67.8686522313137
2967000000,-73.6624858907334
2968100000,-77.0986432221256
2969200000,-70.671952572805
2970300000,-69.1967678381888
2971400000,-64.8945748959094
2972500000,-66.8511012832688
2973600000,-74.2637963300031
2974700000,-67.3305306775187
2975800000,-85.9083812028663
2976900000,-72.1784226945225
2978000000,-70.0016661427217
2979100000,-74.7303730504423
2980200000,-69.563894770956
2981300000,-82.7620100340965
2982400000,-81.2466963424031
2983500000,-76.9650816224383
2984600000,-76.9049422229812
2985700000,-65.0211442308483
2986800000,-81.414763444819
2987900000,-66.2796063270025
2989000000,-74.3008288050357
2990100000,-79.3587872697876
2991200000,-70.2589287821958
2992300000,-81.6432207356195
2993400000,-69.1773530265922
2994500000,-71.0104100800648
2995600000,-82.7886280035081
2996700000,-63.1556594369612
2997800000,-68.9632531431681
2998900000,-62.1622760627052
3000000000,-60.8439253560216
