!Mini-Circuits Laboratory
!S-Parameters
!Model: TSS-53LNB+
!Run / Lot / Date Code: NA / NA / NA
!Fixture: NA; UNIT ON TB
!AUTO PORT EXTENSION DONE: PORT<1>=91.91ps; PORT<2>=84.91ps
!Network Analyzer: PNA-X N5242A - 423 4 ports;  Serial number: 71256
!Date: 4/4/2014 at 12:21:25 PM
!S/N: Unit# 1
!
# Hz  S  dB  R  50
!Frequency    S11 dB        S11 Deg       S21 dB        S21 Deg       S12 dB        S12 Deg       S22 dB        S22 Deg       
10000000      -0.3657450    172.0491028   -34.4828415   35.5606003    -47.6542015   154.0243988   -0.0969527    -13.7655497   
20000000      -0.4643718    165.3811951   -21.3321800   32.6672516    -59.7413788   -137.9833069  -0.1986841    -27.6892605   
30000000      -0.5516962    158.3439026   -12.0466099   26.7357292    -65.6631393   -167.1354980  -0.3308123    -41.0410118   
40000000      -0.6253405    151.2010040   -5.4493780    18.8808708    -55.0016594   -133.6053925  -0.5158073    -54.1949692   
50000000      -0.7303317    143.8464050   -0.4013000    9.7970324     -52.6081505   -169.9087067  -0.7631920    -66.9128265   
60000000      -0.8524787    136.6842957   3.5473809     1.0467250     -50.1156693   -132.2431030  -1.0241380    -78.8072815   
70000000      -1.0028549    128.8670959   6.8523512     -8.4163342    -44.0953598   -166.0608063  -1.3539550    -90.2610474   
80000000      -1.2074370    121.0535965   9.5465565     -17.8205109   -41.2929382   -179.3710022  -1.7449210    -101.0784988  
90000000      -1.4710870    113.1456985   11.7984104    -27.2275696   -39.0673485   169.1383972   -2.1769731    -111.4400024  
100000000     -1.8041790    105.0681000   13.6703196    -36.5167809   -37.0546494   158.6434021   -2.6865721    -121.0979996  
125000000     -2.9172759    85.0739822    17.0881691    -58.2677193   -33.4679909   136.6188965   -4.1597190    -141.7270966  
150000000     -4.3898129    66.3202362    19.2125301    -77.0700836   -31.1771393   116.8491974   -5.8568878    -156.9559021  
175000000     -6.0724978    49.1057701    20.4966297    -92.8281174   -29.8055992   101.3909988   -7.5607781    -167.1470947  
200000000     -7.8198800    33.2833595    21.2937202    -105.6865005  -28.9437504   88.8618393    -9.0875320    -173.0189056  
225000000     -9.4887075    18.7196293    21.7962208    -116.2834015  -28.4292507   78.0761032    -10.3150997   -175.6036987  
250000000     -11.0385799   5.0110312     22.1284904    -125.0632019  -27.9823303   69.5559387    -11.2274103   -176.4084930  
275000000     -12.4037304   -8.4787760    22.3455296    -132.4467010  -27.7585506   63.1853981    -11.8377399   -176.3889008  
300000000     -13.5374804   -21.0898209   22.5013905    -138.7492981  -27.6761093   56.8027382    -12.2103701   -176.0648956  
325000000     -14.4199495   -33.6323395   22.6022606    -144.2183075  -27.5013599   52.1982918    -12.4719200   -175.8504028  
350000000     -15.0797997   -44.9614983   22.6826706    -149.0252991  -27.3105106   47.6959305    -12.6510096   -175.9134979  
375000000     -15.5507803   -54.9746017   22.7327499    -153.3273010  -27.2975502   44.1791992    -12.6672897   -175.9069977  
400000000     -15.8756905   -64.5776596   22.7672997    -157.2113953  -27.2709694   40.9137306    -12.7324696   -176.2790070  
425000000     -16.0681400   -72.6880035   22.7992802    -160.7151031  -27.1398602   37.6561394    -12.6953201   -176.8453979  
450000000     -16.1615906   -80.2316971   22.8153992    -163.9282990  -27.1241093   35.0450706    -12.7114296   -177.3959961  
475000000     -16.1734409   -86.2986832   22.8295097    -166.9454956  -27.0308895   32.3441391    -12.7147999   -178.3435974  
500000000     -16.1606598   -92.2080765   22.8354893    -169.7330017  -27.0615807   30.3033695    -12.7451696   -179.1640015  
525000000     -16.1056709   -96.9572906   22.8452396    -172.3684998  -27.0137691   28.7786293    -12.7295504   179.9736023   
550000000     -16.1222000   -101.2422028  22.8533993    -174.8224945  -27.0590305   26.4330101    -12.7214098   179.2713928   
575000000     -16.0060692   -104.8738022  22.8510494    -177.1800995  -26.9444904   24.8132191    -12.7357397   178.2707062   
600000000     -15.9981699   -108.4272003  22.8478203    -179.4028931  -26.9758091   23.4716892    -12.7275696   177.6535034   
625000000     -15.9288197   -111.3542023  22.8454399    178.4750977   -26.9216194   22.2709293    -12.7459402   176.5256042   
650000000     -15.8906202   -113.8554001  22.8383102    176.4214935   -26.9364204   20.8728008    -12.7589598   175.7610016   
675000000     -15.8267698   -116.2556992  22.8290291    174.4638977   -26.8974304   19.3431492    -12.8038797   174.8786926   
700000000     -15.7833900   -118.6271973  22.8154507    172.5709076   -26.9183693   18.2377300    -12.8619003   174.0065002   
725000000     -15.7727404   -120.4916992  22.8098202    170.7429047   -26.9114304   17.1907501    -12.8594704   173.2489014   
750000000     -15.7179298   -122.0320969  22.8003807    168.9476929   -26.8256493   15.9768696    -12.9110098   172.2720032   
775000000     -15.7111597   -123.8625031  22.7885704    167.2608032   -26.8548908   15.0450096    -12.9487896   171.5885010   
800000000     -15.6704197   -125.0739975  22.7813797    165.5536957   -26.8542709   14.1067801    -12.9890804   170.8641052   
825000000     -15.6136303   -126.4945984  22.7580795    163.9216003   -26.8170700   13.2380896    -13.0487099   169.9990997   
850000000     -15.6092300   -127.5335999  22.7463703    162.3296051   -26.8677101   12.2482996    -13.0772600   169.3175964   
875000000     -15.6097403   -128.5601044  22.7356300    160.7805023   -26.8801994   11.5628004    -13.1452703   168.5765076   
900000000     -15.5981703   -129.4685974  22.7202702    159.1994019   -26.7897396   10.6671200    -13.1969404   167.9154968   
925000000     -15.5939302   -130.2321014  22.7003002    157.6990051   -26.8057194   9.9211845     -13.2671299   167.1887054   
950000000     -15.6076097   -131.0502930  22.6861801    156.2416992   -26.7997608   8.7198601     -13.3186798   166.5989990   
975000000     -15.5446501   -132.0818939  22.6679802    154.7630005   -26.7817097   8.6637001     -13.4137602   166.0090942   
1000000000    -15.5928698   -132.5126038  22.6529293    153.3500061   -26.8173199   7.8951359     -13.4703302   165.4062958   
1025000000    -15.5703497   -133.1560059  22.6345901    151.9555054   -26.8197594   6.8622551     -13.5859098   164.8309021   
1050000000    -15.5698605   -133.5242004  22.6188793    150.5697937   -26.7904797   6.3705640     -13.6217499   164.1800995   
1075000000    -15.5702200   -134.0888062  22.5968304    149.1808929   -26.7871704   5.7275591     -13.7251902   163.7117004   
1100000000    -15.5883598   -134.3755035  22.5796604    147.8824005   -26.7491703   5.1817870     -13.7996902   163.2444000   
1125000000    -15.5800896   -134.7749023  22.5572205    146.5305023   -26.7231693   4.4604659     -13.8883801   162.7474976   
1150000000    -15.5907602   -135.1443024  22.5436306    145.2028961   -26.7490005   3.5602560     -13.9667196   162.2254944   
1175000000    -15.5883904   -135.4822998  22.5163403    143.9163055   -26.7147408   2.8146031     -14.0716400   161.6708984   
1200000000    -15.6232700   -135.6690979  22.4995003    142.6403961   -26.7408791   2.4842949     -14.1758204   161.2904053   
1225000000    -15.6355305   -135.6838989  22.4769993    141.3527069   -26.7138004   2.3373029     -14.2673302   161.0572052   
1250000000    -15.6299295   -136.0341034  22.4523506    140.0986938   -26.7511692   1.5594720     -14.3791304   160.5464020   
1275000000    -15.6529398   -135.9127960  22.4332809    138.8623962   -26.6935596   1.3034739     -14.4912500   160.3159943   
1300000000    -15.6691103   -136.1199036  22.4108696    137.6277008   -26.7153091   0.5286860     -14.5990105   159.9436035   
1325000000    -15.6738997   -136.2360992  22.3891201    136.4113007   -26.7018509   -0.1290376    -14.7408705   159.7447968   
1350000000    -15.7043800   -136.2720032  22.3673992    135.2088928   -26.6989193   -0.7708640    -14.8530998   159.6197052   
1375000000    -15.7212095   -136.0769958  22.3457699    133.9754944   -26.6928902   -0.7622187    -14.9616404   159.3329010   
1400000000    -15.7423000   -136.1239014  22.3228703    132.7817993   -26.6819897   -1.6376400    -15.0433998   159.2481995   
1425000000    -15.7391300   -135.7144928  22.3001194    131.6188049   -26.7194309   -1.9544441    -15.1767397   159.0045929   
1450000000    -15.7578096   -135.6967926  22.2761593    130.4555054   -26.7012997   -2.5070751    -15.3115501   158.9472961   
1475000000    -15.7491102   -135.5623932  22.2528706    129.2812042   -26.6478806   -3.1365170    -15.4342098   158.8155060   
1500000000    -15.8018103   -135.3132935  22.2296391    128.1192932   -26.7547398   -3.5280859    -15.5605402   158.8804016   
1525000000    -15.7472000   -135.2536011  22.2033806    126.9313965   -26.6996994   -3.5776711    -15.7118998   158.8164978   
1550000000    -15.7548304   -135.2474060  22.1767998    125.7542038   -26.6677399   -4.2607908    -15.8302898   158.7819977   
1575000000    -15.8565598   -135.0335999  22.1450291    124.6576996   -26.6990108   -4.7712240    -15.9379501   158.7953033   
1600000000    -15.8311996   -134.7176971  22.1190796    123.5431976   -26.6756191   -5.3952079    -16.1441193   159.0626984   
1625000000    -15.8563900   -134.3641968  22.0917606    122.4179001   -26.6681309   -5.7825871    -16.2441006   159.3022003   
1650000000    -15.8280497   -134.3305054  22.0621395    121.3322983   -26.6572208   -5.7726598    -16.3956203   159.2657013   
1675000000    -15.9009104   -133.9609985  22.0439892    120.2413025   -26.6436806   -6.5633779    -16.5342503   159.5917969   
1700000000    -15.9259901   -133.5623016  22.0160198    119.1633987   -26.6693306   -7.4238138    -16.6856308   159.6336975   
1725000000    -15.9328203   -133.0419006  21.9919605    118.0835037   -26.6662502   -7.3172889    -16.8527203   159.9149017   
1750000000    -15.9739504   -132.2333984  21.9683495    116.9334030   -26.6437492   -7.9460359    -17.0514603   160.5592957   
1775000000    -15.9701405   -131.7642975  21.9471397    115.8460999   -26.6734505   -8.4794521    -17.1549492   161.2926025   
1800000000    -15.8908005   -130.9145966  21.9156609    114.7445984   -26.6733704   -8.6174812    -17.3290901   161.8670044   
1825000000    -15.7408895   -130.8802948  21.8850098    113.6741028   -26.6596298   -8.8447390    -17.4017391   162.1567993   
1850000000    -15.7849197   -131.0756989  21.8607693    112.6163025   -26.6335297   -9.1863375    -17.5785294   162.6452026   
1875000000    -15.8355503   -130.7460938  21.8321495    111.5710983   -26.6142807   -9.8181114    -17.7545891   163.5422974   
1900000000    -15.8097401   -130.4082947  21.8076401    110.5124969   -26.6209106   -10.5966797   -17.9215393   164.6311035   
1925000000    -15.8243999   -129.7561035  21.7781391    109.4738998   -26.6258907   -10.6395102   -18.0509701   165.5330048   
1950000000    -15.7773895   -129.3619995  21.7533207    108.3864975   -26.5915508   -11.4136696   -18.1542702   166.3332062   
1975000000    -15.7800703   -129.2243958  21.7231293    107.3291016   -26.6022091   -11.3295298   -18.2667294   167.4113007   
2000000000    -15.8172102   -128.8401031  21.6959000    106.3223038   -26.5650692   -12.0055904   -18.4070702   168.6148987   
2025000000    -15.8437204   -128.3724976  21.6693802    105.2857971   -26.5587406   -12.5100603   -18.4648991   169.9427948   
2050000000    -15.8747196   -128.0977936  21.6384106    104.2115021   -26.5803699   -13.0608902   -18.5422401   170.6029053   
2075000000    -15.8791599   -127.1179962  21.6086807    103.2055969   -26.6030006   -12.8909502   -18.7788296   171.9788971   
2100000000    -15.7980604   -126.2881012  21.5840492    102.2051010   -26.6365299   -13.6292000   -18.7713299   173.6609039   
2125000000    -15.7483196   -125.6417007  21.5566597    101.1884995   -26.5942402   -13.7968798   -18.9076500   175.2895050   
2150000000    -15.7175102   -125.2341003  21.5262299    100.1244965   -26.5623207   -14.3163204   -18.9205303   176.8952026   
2175000000    -15.7088900   -124.9235001  21.4992504    99.1078568    -26.6162109   -14.8706703   -18.9900894   177.7783051   
2200000000    -15.6886301   -124.2242966  21.4678192    98.1480789    -26.6097107   -15.0539598   -18.9868908   179.4272003   
2225000000    -15.6910696   -123.9166031  21.4400692    97.1473007    -26.5877399   -15.4481497   -19.0985699   -178.5935059  
2250000000    -15.6160803   -123.2843018  21.4140396    96.1589737    -26.6203098   -16.1322594   -19.0972004   -177.1515045  
2275000000    -15.5998602   -122.8755035  21.3863201    95.1629868    -26.5689697   -16.5574093   -19.0721607   -175.8173981  
2300000000    -15.5506802   -122.6122971  21.3587093    94.1117172    -26.5586109   -16.7344608   -19.0390091   -174.2817993  
2325000000    -15.5202599   -122.0214005  21.3226700    93.1101227    -26.5640392   -17.0034103   -19.0407391   -172.7518005  
2350000000    -15.5055103   -121.7898026  21.2950802    92.1240311    -26.5600300   -17.4700108   -18.9589596   -171.2118073  
2375000000    -15.4653502   -121.1844025  21.2626305    91.1675720    -26.5804195   -18.0733299   -18.9509792   -169.5711975  
2400000000    -15.4481001   -120.8772964  21.2394104    90.1308517    -26.5641594   -18.3881798   -18.8226891   -168.6123962  
2425000000    -15.3956099   -120.3216019  21.2031994    89.1362534    -26.6021194   -18.7753105   -18.7858696   -167.0260010  
2450000000    -15.4126396   -119.8283005  21.1661701    88.2029266    -26.5780792   -19.3487301   -18.7027397   -165.4880981  
2475000000    -15.3262501   -119.5342026  21.1442699    87.2034302    -26.6052895   -19.3835106   -18.5737591   -164.0885010  
2500000000    -15.3000498   -119.1606979  21.1064091    86.2501221    -26.5099201   -19.7374802   -18.4968300   -163.1847992  
2525000000    -15.2632504   -118.6579971  21.0866604    85.2797470    -26.5910702   -20.3545208   -18.3873100   -161.9017029  
2550000000    -15.2488298   -118.6048965  21.0546608    84.2592392    -26.5323505   -20.7665291   -18.2691898   -161.1304932  
2575000000    -15.2414303   -117.8845978  21.0179100    83.3943176    -26.5750999   -21.1989899   -18.1761494   -159.6510925  
2600000000    -15.2239799   -117.4273987  20.9879208    82.4203796    -26.5464592   -21.4396400   -18.0793991   -158.3650055  
2625000000    -15.1332798   -117.1598969  20.9639893    81.4862366    -26.4971294   -21.3905296   -17.9054909   -157.6235962  
2650000000    -15.0816002   -116.9517975  20.9391308    80.5116577    -26.5247192   -22.0582905   -17.7091198   -156.7295990  
2675000000    -15.0574598   -116.8744965  20.9101391    79.5643234    -26.5358906   -23.0050602   -17.5706596   -155.8760986  
2700000000    -15.0340796   -116.4713974  20.8795109    78.5926819    -26.5260601   -22.7028599   -17.4225502   -154.9118958  
2725000000    -15.0066099   -116.2675018  20.8465195    77.6457672    -26.5845795   -23.3709698   -17.2722797   -154.3271027  
2750000000    -14.9398098   -115.9362030  20.8220406    76.6509171    -26.5445099   -23.8320904   -17.1095791   -153.8011017  
2775000000    -14.9672604   -116.0968018  20.7828693    75.6965027    -26.5123806   -24.1573601   -16.9776592   -153.4151001  
2800000000    -14.9641800   -115.9366989  20.7540398    74.7761765    -26.5250206   -24.2350292   -16.8367500   -152.9479980  
2825000000    -14.8969603   -115.4910965  20.7320194    73.8936081    -26.5514793   -25.0422096   -16.6489105   -152.3919983  
2850000000    -14.8754101   -115.2680969  20.6979294    72.9097824    -26.5461807   -24.9773808   -16.5072708   -152.1421051  
2875000000    -14.8276901   -114.9937973  20.6672802    72.0077667    -26.5845108   -25.8248196   -16.3632603   -151.5682983  
2900000000    -14.7817497   -114.9750977  20.6398697    71.0890808    -26.5623703   -25.8691196   -16.2289906   -151.4284973  
2925000000    -14.7680902   -114.8917007  20.6121292    70.1166077    -26.4805908   -26.4797001   -16.1077003   -151.0209961  
2950000000    -14.7222605   -114.6869965  20.5892391    69.2072296    -26.5000706   -27.0691204   -15.8973103   -150.3347015  
2975000000    -14.7123003   -114.6906967  20.5578899    68.2626877    -26.5725803   -26.9741993   -15.7312498   -150.2167053  
3000000000    -14.6683798   -114.6772003  20.5267296    67.2687988    -26.5453491   -27.7416496   -15.6176901   -150.2751007  
3025000000    -14.6227198   -114.7421036  20.4971905    66.3815231    -26.5632706   -27.6835003   -15.4545803   -150.4432068  
3050000000    -14.6690702   -114.9590988  20.4650707    65.4783401    -26.5650806   -28.4584599   -15.3109903   -150.1430969  
3075000000    -14.6666698   -115.1146011  20.4397793    64.5199585    -26.5487595   -28.4504700   -15.1853104   -150.3361969  
3100000000    -14.6840096   -114.7998962  20.4096298    63.6299706    -26.5272598   -29.1053200   -15.0618401   -150.2176056  
3125000000    -14.7245798   -115.0194016  20.3803692    62.7023888    -26.5496101   -29.4229202   -14.9294205   -150.3945007  
3150000000    -14.6998796   -114.8274002  20.3488903    61.8045883    -26.5149593   -30.4313793   -14.8472004   -150.5682983  
3175000000    -14.6992302   -114.1552963  20.3120403    60.9984283    -26.5505505   -30.3975506   -14.8010798   -150.1607056  
3200000000    -14.6267500   -114.2670975  20.3049297    60.0197105    -26.5373993   -30.8373909   -14.5481300   -150.2035065  
3225000000    -14.5983105   -114.9955978  20.2745895    59.0791893    -26.5776691   -31.2552109   -14.4652500   -150.5469055  
3250000000    -14.6082697   -115.1119995  20.2477894    58.1474419    -26.5471001   -31.7450905   -14.3525000   -150.5142975  
3275000000    -14.6090899   -115.2425003  20.2194004    57.2481308    -26.5915909   -31.6471291   -14.1877499   -151.0216064  
3300000000    -14.6472998   -115.5667038  20.1938095    56.3598900    -26.4970093   -32.2932091   -14.0712099   -150.9761963  
3325000000    -14.7347002   -115.4996033  20.1645699    55.4758911    -26.5605202   -32.5748787   -13.9642696   -151.0334015  
3350000000    -14.6770096   -115.8023987  20.1469994    54.4826012    -26.4969406   -32.9558792   -13.8498201   -151.9053040  
3375000000    -14.7291098   -115.8217010  20.1113701    53.5820808    -26.5139198   -33.5376396   -13.7949896   -151.9606934  
3400000000    -14.7271500   -116.0787964  20.0810299    52.6756401    -26.4812603   -34.0080795   -13.6898203   -152.3260040  
3425000000    -14.7489901   -116.2453995  20.0534191    51.8201599    -26.5273495   -34.4849510   -13.6499395   -152.2070007  
3450000000    -14.7777700   -116.5748978  20.0403805    50.8663292    -26.5441494   -34.6087418   -13.4745197   -152.6652069  
3475000000    -14.8093204   -117.1511993  20.0160503    49.9438286    -26.5582409   -34.8915405   -13.3543301   -153.1226959  
3500000000    -14.8810196   -117.1738968  19.9757500    49.0413589    -26.4834805   -35.5067101   -13.2567101   -153.8520966  
3525000000    -14.9104996   -117.0634995  19.9551697    48.1658592    -26.4960804   -36.3703003   -13.2182703   -153.9884033  
3550000000    -14.9611197   -117.5654984  19.9398193    47.2509499    -26.5402794   -36.2404785   -13.1220303   -154.2129059  
3575000000    -14.9987803   -117.7296982  19.9175606    46.3266983    -26.4823399   -36.7071800   -13.0188398   -154.7785034  
3600000000    -15.0345097   -118.1177979  19.8875904    45.3782997    -26.4920902   -37.1481400   -12.9432602   -155.1242065  
3625000000    -15.0513601   -118.3828964  19.8712997    44.4393501    -26.4870491   -37.5985603   -12.8508101   -155.5809021  
3650000000    -15.1318302   -119.1117020  19.8403091    43.5189018    -26.4585304   -38.1810188   -12.7899704   -156.2451019  
3675000000    -15.1172400   -119.1395035  19.8222504    42.6530991    -26.5442200   -38.5735817   -12.7036400   -156.5758972  
3700000000    -15.2203598   -119.7565002  19.7960300    41.7373199    -26.5526009   -38.8696404   -12.6236095   -157.1116028  
3725000000    -15.2480898   -120.0026016  19.7676907    40.8140411    -26.5417194   -39.0033798   -12.5691605   -157.4745941  
3750000000    -15.2756395   -120.6527023  19.7461491    39.8741798    -26.4996796   -39.9262886   -12.4841499   -158.1192017  
3775000000    -15.3257904   -121.5376968  19.7280102    38.9129486    -26.4694901   -40.4486389   -12.4077997   -158.6251068  
3800000000    -15.4582796   -121.8022995  19.6882401    38.0384216    -26.5352898   -41.0943718   -12.3870697   -159.1188049  
3825000000    -15.4724798   -122.5008011  19.6776295    37.1300316    -26.4981003   -40.7793388   -12.2926598   -159.4367065  
3850000000    -15.5346203   -122.9781036  19.6584492    36.2017403    -26.5045300   -41.7624092   -12.2134705   -160.1647034  
3875000000    -15.6261997   -123.9764023  19.6309509    35.2201805    -26.4785309   -41.6336288   -12.1658401   -160.6614075  
3900000000    -15.7182703   -124.4868011  19.6049194    34.3282394    -26.5163593   -42.3008385   -12.0869198   -161.2447052  
3925000000    -15.7713699   -125.3735962  19.5923691    33.3144684    -26.4695206   -42.9215393   -12.0116997   -161.7666016  
3950000000    -15.9094296   -125.9899979  19.5617504    32.4048691    -26.5294304   -43.2783394   -11.9483204   -162.3966064  
3975000000    -15.9765196   -126.6341019  19.5377598    31.4683495    -26.4676800   -43.9909782   -11.9079704   -163.3623962  
4000000000    -16.0618000   -127.4265976  19.5138893    30.4674492    -26.4746208   -44.1879997   -11.8549604   -163.9219055  
4025000000    -16.0652599   -128.2546997  19.4891300    29.5713596    -26.4929504   -45.0605698   -11.7961302   -164.4013062  
4050000000    -16.1235905   -129.6914978  19.4492397    28.5508003    -26.4702797   -45.1956596   -11.7097797   -165.1600037  
4075000000    -16.1866398   -130.4434967  19.4114208    27.7298908    -26.5855293   -45.8410912   -11.7271204   -165.8616028  
4100000000    -16.2509804   -133.0050964  19.3820705    26.8331203    -26.5640297   -46.0259094   -11.6646700   -166.8336029  
4125000000    -16.5406895   -134.7505035  19.3480396    26.0518208    -26.5680408   -46.6439705   -11.6128397   -167.8845062  
4150000000    -16.6962795   -135.5438995  19.3487091    25.2210808    -26.5305309   -46.7904587   -11.6197901   -168.4848938  
4175000000    -16.8459206   -136.8827057  19.3313999    24.3069992    -26.5322304   -47.0528107   -11.6062603   -169.1504059  
4200000000    -17.0314007   -138.0482025  19.3355293    23.3523006    -26.5309601   -47.8966713   -11.5778399   -169.6329956  
4225000000    -17.1804790   -139.3029938  19.3227997    22.3639908    -26.5188103   -48.0979004   -11.5304699   -170.0841980  
4250000000    -17.2695694   -140.5612030  19.3044605    21.3284302    -26.5059509   -48.5972595   -11.4937696   -170.8226929  
4275000000    -17.4004898   -142.9192963  19.2681503    20.2794094    -26.5100708   -49.0899582   -11.4593000   -171.7707977  
4300000000    -17.7269707   -145.1920929  19.2364407    19.4392605    -26.5234604   -49.5154610   -11.5043201   -172.3524017  
4325000000    -17.8920193   -145.6260071  19.2441406    18.5595093    -26.5364399   -50.3270302   -11.4184999   -172.4438019  
4350000000    -18.0803108   -147.2333069  19.2173691    17.5794907    -26.5255394   -50.4053383   -11.3855200   -173.4617004  
4375000000    -18.2051296   -149.0175934  19.2052593    16.4871807    -26.5457592   -50.6308403   -11.3494196   -174.1511993  
4400000000    -18.3288193   -150.7389069  19.1824207    15.5003901    -26.5191498   -51.3941803   -11.3200397   -174.9360962  
4425000000    -18.5348091   -152.4429932  19.1585197    14.5738001    -26.4930992   -52.4189987   -11.2858000   -175.7274017  
4450000000    -18.6221294   -154.9277954  19.1335793    13.6140003    -26.4947796   -52.6682205   -11.3026104   -176.5128021  
4475000000    -18.7288208   -157.3872070  19.1228008    12.5919800    -26.5297909   -53.0474586   -11.2732000   -177.0984039  
4500000000    -19.0100307   -160.0738983  19.0967808    11.6604996    -26.4641705   -53.9208107   -11.2763300   -177.9463043  
4525000000    -19.1601906   -162.5272064  19.0790005    10.6456203    -26.4840603   -53.7875786   -11.2441301   -178.6459045  
4550000000    -19.3327808   -164.7613983  19.0579300    9.6146812     -26.5307198   -54.7050209   -11.2372904   -179.3862000  
4575000000    -19.4623699   -166.8460999  19.0540695    8.6519918     -26.5068893   -55.4923897   -11.2304201   -179.9073944  
4600000000    -19.5769596   -169.0811005  19.0272999    7.6263881     -26.5259705   -56.3043213   -11.1922102   179.3256989   
4625000000    -19.5855007   -172.1405945  19.0092297    6.5597100     -26.5685005   -56.5064011   -11.1706200   178.4940033   
4650000000    -19.6256199   -175.7901001  18.9866409    5.4878678     -26.5805702   -57.0052414   -11.1363697   177.7604980   
4675000000    -19.9158897   -179.4510956  18.9518509    4.6148691     -26.4357605   -57.7132301   -11.2047997   176.8975983   
4700000000    -19.9392395   179.5467987   18.9522591    3.6037741     -26.5191307   -58.3357391   -11.1998301   176.4131927   
4725000000    -19.7705994   175.6499023   18.9344196    2.4568110     -26.5222492   -58.8589096   -11.1066704   175.8860931   
4750000000    -19.7483597   171.5625000   18.8974609    1.3916250     -26.5557899   -59.3540802   -11.1146297   174.8934021   
4775000000    -19.7469196   168.6091003   18.8720894    0.3734789     -26.5713100   -59.7291985   -11.1105700   174.1634064   
4800000000    -19.6410103   164.9252930   18.8542709    -0.7646657    -26.5624199   -60.1032104   -11.0672998   173.3123016   
4825000000    -19.5218506   160.7736969   18.8236408    -1.7709500    -26.5262394   -60.9803391   -11.0824203   172.4214020   
4850000000    -19.5615902   158.6524048   18.8192101    -2.7979510    -26.5548592   -61.7011299   -11.0696096   172.1502075   
4875000000    -19.3678703   154.0720978   18.7840099    -3.8914931    -26.5460892   -62.1635895   -11.0656796   171.2559967   
4900000000    -19.3008003   150.5431976   18.7539101    -4.9261222    -26.6129799   -62.7988701   -11.0818901   170.2295074   
4925000000    -19.1726608   147.4716034   18.7391396    -5.9882860    -26.6120701   -63.2939110   -11.0803604   169.8744965   
4950000000    -19.0587101   144.5272064   18.7191696    -7.0319109    -26.6119709   -64.1099930   -11.0789804   169.1903992   
4975000000    -18.8551807   141.4606018   18.7016392    -8.2194510    -26.5876408   -64.9082794   -11.0465603   168.7133942   
5000000000    -18.4852695   138.7377014   18.6696606    -9.3960676    -26.5685101   -65.3403015   -10.9911604   167.5791016   
5025000000    -18.2144108   135.1961060   18.6294804    -10.4507399   -26.6444206   -65.6947708   -11.0157003   166.5991974   
5050000000    -18.0070801   131.8955994   18.5980492    -11.5069399   -26.6149292   -66.6840973   -11.0709295   165.8408966   
5075000000    -17.7914791   129.5207977   18.5896091    -12.5873604   -26.6557007   -67.5799484   -11.0519304   165.3267059   
5100000000    -17.4517193   126.8567963   18.5533600    -13.7346096   -26.6421509   -67.6610031   -11.0328503   164.6181946   
5125000000    -17.1901207   124.0401993   18.5259209    -14.8775797   -26.6494503   -68.4354477   -11.0440903   163.9837036   
5150000000    -16.8655701   121.1396027   18.4862003    -15.9580498   -26.5946808   -68.8637466   -11.0830698   162.9537048   
5175000000    -16.6766605   119.4073029   18.4839191    -17.1629791   -26.7486095   -70.0045700   -11.0354795   162.7790985   
5200000000    -16.4202404   117.1292038   18.4417591    -18.3683796   -26.7626305   -70.9162674   -11.0337696   162.0131073   
5225000000    -16.0601692   115.2192001   18.4076309    -19.4579697   -26.7528591   -71.4571533   -11.0502501   161.2064972   
5250000000    -15.7720003   112.7726974   18.3810196    -20.5765896   -26.7913094   -72.1386032   -11.0837603   160.5991058   
5275000000    -15.4346800   111.0572968   18.3445797    -21.7369804   -26.7449608   -72.9356995   -11.0745001   159.8249969   
5300000000    -15.1534901   108.8748016   18.3242207    -22.9297409   -26.7836304   -73.3597336   -11.0871201   159.5740967   
5325000000    -14.8783102   106.7574005   18.2838593    -24.1131592   -26.8397903   -74.0152130   -11.0908403   158.9342041   
5350000000    -14.5860395   104.6430969   18.2452602    -25.2759094   -26.8453197   -74.8300476   -11.0938101   158.1454926   
5375000000    -14.2342796   102.5179977   18.2020798    -26.4258003   -26.8689995   -75.1572266   -11.0865602   157.3388062   
5400000000    -14.0556097   101.1932983   18.1763897    -27.7261600   -26.8243599   -76.4728699   -11.1071501   157.1277008   
5425000000    -13.7498903   99.4397583    18.1439705    -28.9047604   -26.9108009   -77.1642303   -11.1298199   156.6083984   
5450000000    -13.4008598   97.6582565    18.0937805    -30.1186409   -26.9904404   -77.8699036   -11.1019897   155.5567932   
5475000000    -13.1380100   95.9946365    18.0566006    -31.3113308   -26.9874001   -78.2985001   -11.1419096   155.0397949   
5500000000    -12.9082403   94.4520187    18.0155792    -32.5794601   -27.0470791   -79.3529434   -11.1666098   154.7001038   
5525000000    -12.6696196   93.0176468    17.9821491    -33.8946419   -27.0264091   -79.9381638   -11.1277800   154.2070007   
5550000000    -12.3340797   91.5483627    17.9189396    -35.1068802   -27.1639595   -80.8979187   -11.1135197   153.3401947   
5575000000    -12.1182804   89.4889984    17.8957005    -36.3137512   -27.1063099   -81.3607864   -11.1902199   153.2704926   
5600000000    -11.8686895   88.5073776    17.8382797    -37.6346588   -27.1161098   -82.7262878   -11.1413898   152.6847992   
5625000000    -11.6131001   86.9515533    17.7980404    -38.9271088   -27.2340298   -83.0109863   -11.1191998   152.0713959   
5650000000    -11.3764200   85.5420227    17.7401295    -40.2118988   -27.2510796   -84.4737625   -11.1569796   151.6669006   
5675000000    -11.1607199   84.0012970    17.7027092    -41.5311890   -27.2543697   -85.1098022   -11.1792002   151.4953003   
5700000000    -10.9166603   82.6294937    17.6436501    -42.8021088   -27.2883091   -85.9480286   -11.1766195   150.8092957   
5725000000    -10.6660404   81.4501572    17.5837307    -44.2469292   -27.3556499   -86.5048065   -11.1180496   150.4676056   
5750000000    -10.4135399   79.9641495    17.5152302    -45.4698105   -27.4004002   -87.5295334   -11.1243095   149.9853973   
5775000000    -10.1858702   78.7984619    17.4576092    -46.8520203   -27.5419197   -88.4606171   -11.1245003   149.5007019   
5800000000    -9.9818935    77.2201080    17.4064503    -48.1571312   -27.5022202   -89.0231705   -11.1534595   149.2563019   
5825000000    -9.7232027    75.7102127    17.3438797    -49.5244713   -27.5640297   -89.8369370   -11.1221304   148.7644043   
5850000000    -9.5527096    74.1931763    17.2899799    -50.8499107   -27.6758900   -90.7455978   -11.1735601   148.3636932   
5875000000    -9.3617315    72.5748520    17.2237892    -52.2983398   -27.6675892   -92.1016006   -11.1668901   148.3141022   
5900000000    -9.1670322    71.4619293    17.1480408    -53.7282600   -27.7048397   -93.0156097   -11.1389198   148.0747070   
5925000000    -8.9383621    69.7253113    17.0937901    -55.1964989   -27.8404503   -93.5860672   -11.1506205   147.8312073   
5950000000    -8.7493601    68.5535431    17.0032406    -56.6104012   -27.9109993   -95.2815170   -11.0867500   147.1763000   
5975000000    -8.5715933    67.0843887    16.9217796    -58.1258392   -27.9409008   -95.4332504   -11.0812902   147.0841064   
6000000000    -8.3816195    65.5587006    16.8344707    -59.5350800   -28.0350304   -97.0575485   -11.0910101   146.7798004   
6050000000    -8.0223436    62.5633202    16.6550694    -62.5031891   -28.1459408   -98.8672714   -11.0161600   146.4017029   
6100000000    -7.7362590    58.8600807    16.4771996    -65.6472397   -28.3598404   -100.3106003  -11.0291996   146.4098053   
6150000000    -7.3856740    55.6296692    16.2442608    -68.7255630   -28.6073303   -102.8380966  -10.9215202   145.7346954   
6200000000    -7.0979400    51.9049797    16.0077496    -71.9301224   -28.8395500   -105.5512009  -10.8752403   145.5234070   
6250000000    -6.7661400    47.3516006    15.7604704    -75.1591797   -29.1169109   -107.1462021  -10.8665400   145.5827026   
6300000000    -6.5428619    43.1018791    15.4383802    -78.6181107   -29.4215603   -110.4533005  -10.7553196   145.3670044   
6350000000    -6.3744869    37.9435005    15.0629597    -82.1692429   -29.7842999   -112.9075012  -10.6248198   145.6336975   
6400000000    -6.2336988    32.0639114    14.6296997    -85.7562866   -30.2513695   -114.8173981  -10.5370798   145.9662933   
6450000000    -6.1884642    25.3869705    14.0927296    -89.3225937   -30.8568001   -117.0493011  -10.3593702   146.3585968   
6500000000    -6.2363410    17.6782494    13.4269896    -92.6856689   -31.4298897   -119.8718033  -10.1695204   146.8023987   
6550000000    -6.4109249    8.2071457     12.6176004    -95.7864685   -32.3012199   -121.2866974  -9.9422255    147.5838928   
6600000000    -6.8652058    -2.9017370    11.5621595    -97.7087708   -33.2060890   -123.1412964  -9.5946627    148.3132019   
6650000000    -7.6078658    -16.5516396   10.3205004    -97.3551331   -34.5002899   -120.7506027  -9.2041798    148.7835999   
6700000000    -8.7552156    -33.8218689   9.0426121     -93.0952072   -35.7390709   -115.5149994  -8.7210255    148.8657990   
6750000000    -10.4033604   -56.0159607   8.2654381     -84.2354965   -36.7635002   -105.8399963  -8.1921682    148.1029968   
6800000000    -12.2805204   -85.9836731   8.4996719     -74.4537964   -36.2791901   -95.3126907   -7.7018299    146.6638031   
6850000000    -13.3414001   -124.2398987  9.4429464     -68.7664566   -35.3487091   -88.2325363   -7.2231488    144.5964050   
6900000000    -12.5800896   -161.9597015  10.4917097    -67.8658905   -34.3392906   -87.0536804   -6.8425851    142.2537994   
6950000000    -10.9232998   170.3134003   11.3359098    -69.9136200   -33.5484810   -88.2414169   -6.5536871    139.7055054   
7000000000    -9.3259172    151.0655975   11.9070101    -73.4283981   -33.0754395   -90.3316116   -6.3417821    137.2612000   
7050000000    -8.0172405    137.0579987   12.2637701    -77.4113007   -32.6323509   -92.8419571   -6.1302218    135.0520935   
7100000000    -7.0005589    126.5058975   12.4500904    -81.6282730   -32.5942192   -95.2603836   -5.9602151    133.0865021   
7150000000    -6.1977730    117.8650970   12.5288801    -85.6975403   -32.5298004   -98.9484634   -5.8066468    131.1165009   
7200000000    -5.5621262    111.1572037   12.5010900    -89.6019135   -32.5203896   -100.7937012  -5.6452880    129.3074036   
7250000000    -5.0146570    105.4542999   12.4061298    -93.2263336   -32.4644890   -103.9465027  -5.4657650    127.7101974   
7300000000    -4.5688519    100.4929962   12.2845898    -96.8395691   -32.6659088   -105.5678024  -5.3105679    125.9384003   
7350000000    -4.1786652    96.0051498    12.1181602    -100.2407990  -32.9204292   -107.7893982  -5.1591392    124.2833023   
7400000000    -3.8945730    92.3065872    11.9052000    -103.5559998  -33.2306595   -108.9086990  -5.0061202    122.6230011   
7450000000    -3.5926249    89.0330582    11.6782703    -106.5996017  -33.5275002   -111.5133972  -4.8648429    120.9787979   
7500000000    -3.3310990    86.0139771    11.4367905    -109.4989014  -33.6909790   -113.2686996  -4.7284489    119.3798981   
7550000000    -3.0828159    83.3358612    11.1914396    -112.1644974  -34.0229301   -115.6275024  -4.5809288    117.9399033   
7600000000    -2.8789060    80.5818634    10.9554796    -115.0457993  -34.2851410   -115.4197006  -4.4404030    116.3536987   
7650000000    -2.6780391    78.3479691    10.6869001    -117.7983017  -34.6640892   -115.8548965  -4.2983179    114.9630966   
7700000000    -2.5145750    76.1353912    10.4010201    -120.6279984  -35.0280418   -120.9160995  -4.1509538    113.2339020   
7750000000    -2.3456280    74.3544235    10.0814400    -123.0663986  -35.5529594   -118.7085037  -3.9960070    111.9140015   
7800000000    -2.2026839    72.5348969    9.7623739     -125.6820984  -35.7707100   -119.1522980  -3.8317089    110.3330002   
7850000000    -2.0850210    70.7272034    9.4253244     -128.2308044  -36.3140907   -122.9047012  -3.7080619    108.6760025   
7900000000    -1.9391870    69.3253784    9.0875835     -130.5984039  -36.4878693   -120.7091980  -3.5513930    107.1742020   
7950000000    -1.8127400    67.7624435    8.7343225     -132.9691010  -36.8261299   -123.7062988  -3.4309981    105.5491028   
8000000000    -1.6763060    66.2956314    8.3592882     -135.1954041  -37.5764694   -123.2604980  -3.3119359    103.9953995   
8050000000    -1.5644330    65.0421219    7.9918618     -137.2792969  -37.5393600   -120.5637970  -3.1707220    102.4775009   
8100000000    -1.4862920    63.6207886    7.5750299     -139.4830017  -38.7145500   -127.2273026  -3.1219690    100.7659988   
8150000000    -1.3424700    62.4778900    7.2231579     -141.4064026  -38.4708290   -121.0815964  -2.9474089    99.5204697    
8200000000    -1.2605590    61.1814194    6.8127451     -143.5265045  -39.3650513   -123.7039032  -2.8561640    97.9582977    
8250000000    -1.2146870    60.1445885    6.3876052     -145.5101013  -39.9948006   -121.1725006  -2.7402821    96.4808426    
8300000000    -1.1295069    59.0885086    5.9767919     -147.5039978  -39.8515511   -120.1397018  -2.6249030    94.9284134    
8350000000    -1.0613641    58.1968002    5.5378299     -149.4299927  -40.7178802   -122.3783035  -2.5321670    93.6853027    
8400000000    -1.0165350    57.3953514    5.0604162     -151.2971954  -42.1658211   -117.9817963  -2.4564590    92.2275620    
8450000000    -0.9633780    56.3697586    4.5735340     -153.1954041  -41.5240097   -120.5744019  -2.3407619    90.5375824    
8500000000    -0.8989426    55.6478310    4.0655899     -154.8795013  -42.7392693   -124.2749023  -2.2626350    89.1832809    
8550000000    -0.8394268    55.0695992    3.5318220     -156.3816071  -42.5353699   -112.1267014  -2.1709089    87.8897171    
8600000000    -0.7865572    54.4405212    2.9820590     -157.8634949  -44.2516899   -107.2132034  -2.0888040    86.5059204    
8650000000    -0.7453309    53.6874809    2.3838999     -159.3932953  -43.7437286   -114.1514969  -2.0215480    84.9321823    
8700000000    -0.6893619    53.1614494    1.7798680     -160.4604950  -44.2527618   -103.0382004  -1.9357860    83.6527863    
8750000000    -0.6559089    52.5897484    1.1240920     -161.4602966  -44.3984604   -106.6492004  -1.8966120    82.1766129    
8800000000    -0.6012462    52.0560989    0.4375091     -162.1844940  -44.2766685   -95.1477966   -1.8168520    81.0681686    
8850000000    -0.5911535    51.5495491    -0.2596168    -162.5937958  -43.4906311   -110.4016037  -1.7733400    79.6940765    
8900000000    -0.5365006    51.1058502    -1.0334851    -162.6761017  -45.1511307   -92.5328827   -1.7343889    78.5284119    
8950000000    -0.5080899    50.8284683    -1.8553820    -162.0563965  -44.8894196   -91.5782166   -1.7238870    77.3644638    
9000000000    -0.4701435    50.3929405    -2.7205911    -161.2747040  -47.8324890   -85.0402298   -1.6663970    75.9945068    
9050000000    -0.4253837    49.9883499    -3.6352069    -158.8376007  -45.0735588   -70.5359421   -1.6674780    74.7429199    
9100000000    -0.4093255    49.6655884    -4.5287561    -155.4842072  -46.3606796   -76.0627594   -1.6507210    73.6194000    
9150000000    -0.3614780    49.3061714    -5.3928132    -150.4600983  -46.3526993   -60.4520416   -1.6814530    72.2083664    
9200000000    -0.3471067    48.9047203    -6.0309081    -143.8554993  -45.7458305   -63.9793205   -1.7050310    71.1671371    
9250000000    -0.3194549    48.5182495    -6.3486400    -135.8285065  -44.0890198   -50.5209999   -1.7449300    70.1684494    
9300000000    -0.3107393    48.1716194    -6.2132058    -127.4443970  -43.8759995   -56.3973808   -1.8358440    69.0817566    
9350000000    -0.3035123    47.7819290    -5.6579289    -120.7779007  -42.9304886   -57.7151718   -1.9279950    68.3782730    
9400000000    -0.3020438    47.5150299    -4.7926331    -116.2317963  -42.9025116   -49.4937782   -2.0768731    67.7340775    
9450000000    -0.2897491    47.1710281    -3.8690510    -114.7783966  -43.2070618   -51.5592995   -2.2174370    67.4744492    
9500000000    -0.3055012    46.7577591    -3.0049429    -115.7373962  -41.1538315   -54.5950508   -2.3759971    67.5511093    
9550000000    -0.3280170    46.6806908    -2.3794489    -118.4798965  -40.8013496   -56.8624496   -2.4605839    68.3116074    
9600000000    -0.3369375    46.3993111    -1.9779410    -122.6530991  -40.8350296   -62.4661903   -2.5224071    69.1019516    
9650000000    -0.3625883    46.3763618    -1.8947970    -127.2007980  -40.4934196   -56.7194786   -2.5246520    70.1768036    
9700000000    -0.3848266    46.3017502    -2.0396831    -131.9075012  -41.2385216   -66.5111694   -2.4325359    70.8840332    
9750000000    -0.3879097    46.1964111    -2.4533269    -136.2266998  -41.5618401   -62.6125298   -2.2987990    71.3512726    
9800000000    -0.3917646    46.1209984    -3.0494881    -139.4288940  -42.7572289   -57.9630585   -2.1573350    71.6304626    
9850000000    -0.4104201    46.0481186    -3.7994061    -141.5581970  -41.3097382   -58.9113884   -2.0408859    71.5871506    
9900000000    -0.4007141    45.8741989    -4.6483512    -142.5928040  -42.8834190   -64.2518234   -1.8791590    71.2533569    
9950000000    -0.4144108    45.7116699    -5.6205301    -142.1454926  -44.0152512   -67.4227982   -1.8258719    70.4593811    
10000000000   -0.4406814    45.4374619    -6.6636052    -139.8871002  -42.7336807   -46.5751915   -1.7303740    70.0638199    
